#T(K), Kl_SlackLow(W/mK), Kl_SlackSim(W/mK), Kl_CahillLow(W/mK), Cv(J/molK), S(J/molK), S_Debye(J/molK), H(eV), mpf(Âµm)
10.0000 0.0001 134.0172 0.0003 0.0061 0.0030 0.0000 -0.0000 71544.5338
20.0000 0.0005 67.0086 0.0014 0.0243 0.0121 0.0000 -0.0000 142920.0484
30.0000 0.0018 44.6724 0.0031 0.0547 0.0273 0.0002 -0.0000 214379.9464
40.0000 0.0042 33.5043 0.0055 0.0972 0.0486 0.0004 -0.0000 285839.9319
50.0000 0.0083 26.8034 0.0086 0.1518 0.0759 0.0007 -0.0001 357300.1188
60.0000 0.0143 22.3362 0.0124 0.2186 0.1093 0.0012 -0.0001 428759.8928
70.0000 0.0227 19.1453 0.0168 0.2976 0.1488 0.0019 -0.0002 500219.8777
80.0000 0.0339 16.7521 0.0220 0.3887 0.1943 0.0029 -0.0003 571679.8622
90.0000 0.0483 14.8908 0.0279 0.4919 0.2460 0.0041 -0.0005 643139.8170
100.0000 0.0663 13.4017 0.0344 0.6073 0.3037 0.0056 -0.0006 714599.4953
110.0000 0.0882 12.1834 0.0416 0.7348 0.3674 0.0075 -0.0008 786057.4892
120.0000 0.1145 11.1681 0.0495 0.8745 0.4373 0.0097 -0.0011 857508.3616
130.0000 0.1455 10.3090 0.0581 1.0264 0.5132 0.0123 -0.0014 928936.4720
140.0000 0.1818 9.5727 0.0674 1.1903 0.5952 0.0154 -0.0017 1000306.0197
150.0000 0.2235 8.9345 0.0774 1.3664 0.6832 0.0190 -0.0021 1071548.5299
160.0000 0.2712 8.3761 0.0880 1.5547 0.7774 0.0230 -0.0026 1142550.4987
170.0000 0.3250 7.8834 0.0994 1.7551 0.8776 0.0276 -0.0031 1213144.3182
180.0000 0.3854 7.4454 0.1114 1.9677 0.9838 0.0328 -0.0037 1283104.8383
190.0000 0.4525 7.0535 0.1241 2.1924 1.0962 0.0386 -0.0043 1352152.4874
200.0000 0.5266 6.7009 0.1375 2.4292 1.2146 0.0450 -0.0050 1419962.4254
210.0000 0.6076 6.3818 0.1516 2.6782 1.3391 0.0521 -0.0058 1486178.1690
220.0000 0.6957 6.0917 0.1663 2.9394 1.4697 0.0600 -0.0067 1550427.6683
230.0000 0.7907 5.8268 0.1817 3.2127 1.6063 0.0687 -0.0077 1612339.8436
240.0000 0.8926 5.5840 0.1978 3.4981 1.7491 0.0782 -0.0087 1671559.9448
250.0000 1.0011 5.3607 0.2144 3.7875 1.8977 0.0885 -0.0098 1731501.1710
260.0000 1.1160 5.1545 0.2318 4.0829 2.0520 0.0998 -0.0110 1790501.6612
270.0000 1.2368 4.9636 0.2497 4.3855 2.2117 0.1121 -0.0124 1847449.6146
280.0000 1.3633 4.7863 0.2682 4.6947 2.3768 0.1253 -0.0138 1902275.7472
290.0000 1.4950 4.6213 0.2874 5.0094 2.5470 0.1397 -0.0153 1954938.8638
300.0000 1.6314 4.4672 0.3070 5.3289 2.7222 0.1552 -0.0169 2005423.1512
310.0000 1.7721 4.3231 0.3273 5.6523 2.9022 0.1718 -0.0186 2053734.9842
320.0000 1.9166 4.1880 0.3480 5.9787 3.0868 0.1897 -0.0205 2099899.5507
330.0000 2.0643 4.0611 0.3693 6.3074 3.2758 0.2088 -0.0224 2143957.5189
340.0000 2.2149 3.9417 0.3910 6.6375 3.4690 0.2292 -0.0244 2185961.9024
350.0000 2.3679 3.8291 0.4132 6.9683 3.6662 0.2509 -0.0266 2225975.2130
360.0000 2.5227 3.7227 0.4358 7.2990 3.8671 0.2740 -0.0288 2264066.9496
370.0000 2.6790 3.6221 0.4589 7.6290 4.0716 0.2985 -0.0312 2300311.4355
380.0000 2.8362 3.5268 0.4823 7.9576 4.2794 0.3244 -0.0337 2334785.9967
390.0000 2.9942 3.4363 0.5061 8.2844 4.4904 0.3517 -0.0363 2367569.4548
400.0000 3.1524 3.3504 0.5303 8.6087 4.7042 0.3806 -0.0390 2398740.9058
410.0000 3.3105 3.2687 0.5548 8.9302 4.9207 0.4109 -0.0418 2428378.7502
420.0000 3.4682 3.1909 0.5796 9.2483 5.1398 0.4427 -0.0447 2456559.9370
430.0000 3.6252 3.1167 0.6047 9.5626 5.3611 0.4761 -0.0478 2483359.3924
440.0000 3.7812 3.0458 0.6300 9.8730 5.5845 0.5109 -0.0509 2508849.5998
450.0000 3.9361 2.9782 0.6556 10.1789 5.8098 0.5473 -0.0542 2533100.3054
460.0000 4.0896 2.9134 0.6815 10.4803 6.0368 0.5853 -0.0575 2556178.3259
470.0000 4.2414 2.8514 0.7076 10.7769 6.2654 0.6247 -0.0610 2578147.4374
480.0000 4.3915 2.7920 0.7339 11.0685 6.4953 0.6657 -0.0646 2599068.3299
490.0000 4.5397 2.7350 0.7603 11.3549 6.7265 0.7082 -0.0683 2618998.6111
500.0000 4.6859 2.6803 0.7870 11.6360 6.9588 0.7522 -0.0721 2637992.8493
510.0000 4.8299 2.6278 0.8138 11.9118 7.1919 0.7977 -0.0760 2656102.6451
520.0000 4.9716 2.5773 0.8408 12.1822 7.4258 0.8447 -0.0800 2673376.7244
530.0000 5.1110 2.5286 0.8679 12.4471 7.6604 0.8932 -0.0841 2689861.0460
540.0000 5.2481 2.4818 0.8951 12.7065 7.8955 0.9431 -0.0883 2705598.9190
550.0000 5.3827 2.4367 0.9224 12.9603 8.1310 0.9945 -0.0927 2720631.1258
560.0000 5.5148 2.3932 0.9499 13.2087 8.3667 1.0473 -0.0971 2734996.0487
570.0000 5.6444 2.3512 0.9774 13.4516 8.6027 1.1015 -0.1016 2748729.7954
580.0000 5.7715 2.3106 1.0050 13.6890 8.8387 1.1571 -0.1062 2761866.3247
590.0000 5.8960 2.2715 1.0328 13.9211 9.0747 1.2141 -0.1109 2774437.5676
600.0000 6.0181 2.2336 1.0605 14.1478 9.3106 1.2724 -0.1158 2786473.5465
610.0000 6.1375 2.1970 1.0884 14.3692 9.5463 1.3321 -0.1207 2798002.4881
620.0000 6.2545 2.1616 1.1163 14.5854 9.7817 1.3930 -0.1257 2809050.9328
630.0000 6.3689 2.1273 1.1442 14.7965 10.0167 1.4552 -0.1308 2819643.8383
640.0000 6.4809 2.0940 1.1722 15.0026 10.2514 1.5187 -0.1359 2829804.6775
650.0000 6.5904 2.0618 1.2002 15.2037 10.4855 1.5834 -0.1412 2839555.5321
660.0000 6.6975 2.0306 1.2283 15.3999 10.7192 1.6493 -0.1466 2848917.1798
670.0000 6.8022 2.0003 1.2564 15.5914 10.9522 1.7164 -0.1521 2857909.1771
680.0000 6.9045 1.9708 1.2845 15.7782 11.1846 1.7846 -0.1576 2866549.9367
690.0000 7.0044 1.9423 1.3126 15.9604 11.4162 1.8540 -0.1632 2874856.8004
700.0000 7.1021 1.9145 1.3408 16.1382 11.6472 1.9244 -0.1689 2882846.1070
710.0000 7.1976 1.8876 1.3690 16.3116 11.8773 1.9960 -0.1747 2890533.2564
720.0000 7.2908 1.8613 1.3971 16.4807 12.1066 2.0686 -0.1806 2897932.7692
730.0000 7.3819 1.8359 1.4253 16.6456 12.3351 2.1422 -0.1866 2905058.3419
740.0000 7.4708 1.8110 1.4535 16.8065 12.5627 2.2169 -0.1926 2911922.9000
750.0000 7.5577 1.7869 1.4817 16.9634 12.7893 2.2925 -0.1988 2918538.6455
760.0000 7.6426 1.7634 1.5099 17.1164 13.0150 2.3691 -0.2050 2924917.1032
770.0000 7.7254 1.7405 1.5381 17.2657 13.2397 2.4467 -0.2113 2931069.1624
780.0000 7.8063 1.7182 1.5662 17.4113 13.4635 2.5251 -0.2176 2937005.1171
790.0000 7.8854 1.6964 1.5944 17.5533 13.6862 2.6045 -0.2241 2942734.7021
800.0000 7.9625 1.6752 1.6226 17.6918 13.9079 2.6847 -0.2306 2948267.1281
810.0000 8.0379 1.6545 1.6507 17.8269 14.1285 2.7658 -0.2372 2953611.1134
820.0000 8.1115 1.6344 1.6789 17.9587 14.3480 2.8477 -0.2438 2958774.9143
830.0000 8.1833 1.6147 1.7070 18.0873 14.5665 2.9304 -0.2505 2963766.3524
840.0000 8.2535 1.5954 1.7351 18.2127 14.7839 3.0139 -0.2573 2968592.8417
850.0000 8.3220 1.5767 1.7632 18.3351 15.0001 3.0981 -0.2642 2973261.4120
860.0000 8.3890 1.5583 1.7913 18.4546 15.2153 3.1831 -0.2712 2977778.7325
870.0000 8.4543 1.5404 1.8193 18.5711 15.4293 3.2689 -0.2782 2982151.1326
880.0000 8.5182 1.5229 1.8474 18.6849 15.6422 3.3553 -0.2853 2986384.6220
890.0000 8.5806 1.5058 1.8754 18.7959 15.8539 3.4424 -0.2924 2990484.9094
900.0000 8.6415 1.4891 1.9034 18.9042 16.0646 3.5302 -0.2996 2994457.4197
910.0000 8.7010 1.4727 1.9314 19.0100 16.2740 3.6187 -0.3069 2998307.3105
920.0000 8.7592 1.4567 1.9593 19.1133 16.4824 3.7077 -0.3142 3002039.4872
930.0000 8.8160 1.4410 1.9873 19.2141 16.6895 3.7974 -0.3217 3005658.6174
940.0000 8.8716 1.4257 2.0152 19.3126 16.8956 3.8877 -0.3291 3009169.1441
950.0000 8.9258 1.4107 2.0431 19.4088 17.1004 3.9786 -0.3367 3012575.2984
960.0000 8.9788 1.3960 2.0710 19.5027 17.3042 4.0701 -0.3443 3015881.1112
970.0000 9.0307 1.3816 2.0988 19.5944 17.5068 4.1620 -0.3519 3019090.4240
980.0000 9.0813 1.3675 2.1267 19.6840 17.7082 4.2546 -0.3596 3022206.8998
990.0000 9.1309 1.3537 2.1545 19.7715 17.9085 4.3476 -0.3674 3025234.0320
1000.0000 9.1793 1.3402 2.1823 19.8571 18.1076 4.4412 -0.3753 3028175.1542
1010.0000 9.2266 1.3269 2.2100 19.9406 18.3056 4.5352 -0.3832 3031033.4484
1020.0000 9.2729 1.3139 2.2378 20.0223 18.5025 4.6297 -0.3911 3033811.9530
1030.0000 9.3182 1.3011 2.2655 20.1022 18.6982 4.7247 -0.3991 3036513.5708
1040.0000 9.3624 1.2886 2.2932 20.1802 18.8928 4.8202 -0.4072 3039141.0753
1050.0000 9.4057 1.2764 2.3208 20.2565 19.0863 4.9160 -0.4153 3041697.1182
1060.0000 9.4481 1.2643 2.3485 20.3311 19.2787 5.0123 -0.4235 3044184.2353
1070.0000 9.4895 1.2525 2.3761 20.4040 19.4699 5.1090 -0.4317 3046604.8524
1080.0000 9.5301 1.2409 2.4037 20.4754 19.6600 5.2061 -0.4400 3048961.2909
1090.0000 9.5697 1.2295 2.4313 20.5451 19.8491 5.3036 -0.4484 3051255.7731
1100.0000 9.6086 1.2183 2.4588 20.6134 20.0370 5.4015 -0.4568 3053490.4275
1110.0000 9.6465 1.2074 2.4864 20.6801 20.2239 5.4997 -0.4652 3055667.2926
1120.0000 9.6837 1.1966 2.5139 20.7454 20.4096 5.5983 -0.4737 3057788.3223
1130.0000 9.7201 1.1860 2.5414 20.8093 20.5943 5.6973 -0.4823 3059855.3894
1140.0000 9.7558 1.1756 2.5688 20.8719 20.7779 5.7965 -0.4909 3061870.2898
1150.0000 9.7906 1.1654 2.5963 20.9331 20.9605 5.8961 -0.4996 3063834.7461
1160.0000 9.8248 1.1553 2.6237 20.9930 21.1420 5.9960 -0.5083 3065750.4113
1170.0000 9.8583 1.1454 2.6511 21.0517 21.3224 6.0962 -0.5170 3067618.8719
1180.0000 9.8910 1.1357 2.6785 21.1091 21.5019 6.1967 -0.5258 3069441.6511
1190.0000 9.9231 1.1262 2.7058 21.1653 21.6802 6.2975 -0.5347 3071220.2119
1200.0000 9.9546 1.1168 2.7332 21.2204 21.8576 6.3986 -0.5436 3072955.9597
1210.0000 9.9853 1.1076 2.7605 21.2743 22.0339 6.4999 -0.5525 3074650.2450
1220.0000 10.0155 1.0985 2.7878 21.3271 22.2092 6.6015 -0.5615 3076304.3663
1230.0000 10.0451 1.0896 2.8150 21.3788 22.3835 6.7033 -0.5706 3077919.5717
1240.0000 10.0741 1.0808 2.8423 21.4295 22.5568 6.8054 -0.5797 3079497.0621
1250.0000 10.1025 1.0721 2.8695 21.4792 22.7292 6.9077 -0.5888 3081037.9925
1260.0000 10.1303 1.0636 2.8967 21.5278 22.9005 7.0102 -0.5980 3082543.4747
1270.0000 10.1576 1.0553 2.9239 21.5755 23.0709 7.1130 -0.6072 3084014.5788
1280.0000 10.1843 1.0470 2.9511 21.6223 23.2403 7.2160 -0.6165 3085452.3351
1290.0000 10.2106 1.0389 2.9783 21.6681 23.4087 7.3191 -0.6258 3086857.7360
1300.0000 10.2363 1.0309 3.0054 21.7130 23.5762 7.4225 -0.6352 3088231.7377
1310.0000 10.2615 1.0230 3.0325 21.7570 23.7428 7.5261 -0.6446 3089575.2614
1320.0000 10.2862 1.0153 3.0596 21.8002 23.9084 7.6298 -0.6541 3090889.1951
1330.0000 10.3105 1.0076 3.0867 21.8426 24.0731 7.7338 -0.6636 3092174.3951
1340.0000 10.3343 1.0001 3.1137 21.8841 24.2369 7.8379 -0.6731 3093431.6871
1350.0000 10.3577 0.9927 3.1408 21.9248 24.3997 7.9421 -0.6827 3094661.8674
1360.0000 10.3806 0.9854 3.1678 21.9648 24.5617 8.0466 -0.6923 3095865.7046
1370.0000 10.4031 0.9782 3.1948 22.0040 24.7227 8.1512 -0.7020 3097043.9402
1380.0000 10.4251 0.9711 3.2218 22.0424 24.8829 8.2559 -0.7117 3098197.2903
1390.0000 10.4468 0.9642 3.2488 22.0802 25.0422 8.3608 -0.7214 3099326.4460
1400.0000 10.4680 0.9573 3.2757 22.1172 25.2006 8.4658 -0.7312 3100432.0749
1410.0000 10.4889 0.9505 3.3027 22.1535 25.3582 8.5709 -0.7410 3101514.8218
1420.0000 10.5094 0.9438 3.3296 22.1892 25.5148 8.6762 -0.7509 3102575.3099
1430.0000 10.5295 0.9372 3.3565 22.2242 25.6707 8.7816 -0.7608 3103614.1412
1440.0000 10.5492 0.9307 3.3834 22.2586 25.8257 8.8872 -0.7708 3104631.8979
1450.0000 10.5686 0.9243 3.4102 22.2923 25.9798 8.9928 -0.7807 3105629.1426
1460.0000 10.5876 0.9179 3.4371 22.3255 26.1332 9.0985 -0.7908 3106606.4197
1470.0000 10.6063 0.9117 3.4639 22.3580 26.2857 9.2044 -0.8008 3107564.2554
1480.0000 10.6247 0.9055 3.4908 22.3900 26.4374 9.3104 -0.8109 3108503.1592
1490.0000 10.6428 0.8994 3.5176 22.4213 26.5882 9.4164 -0.8211 3109423.6237
1500.0000 10.6605 0.8934 3.5444 22.4522 26.7383 9.5226 -0.8312 3110326.1259
1510.0000 10.6779 0.8875 3.5711 22.4825 26.8876 9.6288 -0.8415 3111211.1277
1520.0000 10.6950 0.8817 3.5979 22.5122 27.0361 9.7351 -0.8517 3112079.0761
1530.0000 10.7118 0.8759 3.6246 22.5414 27.1838 9.8415 -0.8620 3112930.4040
1540.0000 10.7284 0.8702 3.6514 22.5702 27.3308 9.9480 -0.8723 3113765.5309
1550.0000 10.7446 0.8646 3.6781 22.5984 27.4769 10.0545 -0.8827 3114584.8631
1560.0000 10.7606 0.8591 3.7048 22.6261 27.6224 10.1612 -0.8931 3115388.7944
1570.0000 10.7763 0.8536 3.7315 22.6534 27.7670 10.2678 -0.9035 3116177.7063
1580.0000 10.7917 0.8482 3.7582 22.6802 27.9109 10.3746 -0.9140 3116951.9688
1590.0000 10.8069 0.8429 3.7849 22.7066 28.0541 10.4814 -0.9245 3117711.9405
1600.0000 10.8218 0.8376 3.8115 22.7325 28.1966 10.5883 -0.9350 3118457.9693
1610.0000 10.8365 0.8324 3.8381 22.7579 28.3383 10.6952 -0.9456 3119190.3926
1620.0000 10.8509 0.8273 3.8648 22.7830 28.4793 10.8022 -0.9562 3119909.5375
1630.0000 10.8651 0.8222 3.8914 22.8076 28.6195 10.9092 -0.9668 3120615.7216
1640.0000 10.8790 0.8172 3.9180 22.8318 28.7591 11.0163 -0.9775 3121309.2531
1650.0000 10.8928 0.8122 3.9446 22.8556 28.8980 11.1234 -0.9882 3121990.4310
1660.0000 10.9063 0.8073 3.9712 22.8791 29.0362 11.2306 -0.9990 3122659.5456
1670.0000 10.9195 0.8025 3.9977 22.9021 29.1736 11.3378 -1.0098 3123316.8790
1680.0000 10.9326 0.7977 4.0243 22.9248 29.3104 11.4450 -1.0206 3123962.7047
1690.0000 10.9455 0.7930 4.0508 22.9471 29.4466 11.5523 -1.0314 3124597.2888
1700.0000 10.9581 0.7883 4.0773 22.9691 29.5820 11.6595 -1.0423 3125220.8894
1710.0000 10.9706 0.7837 4.1039 22.9907 29.7168 11.7669 -1.0532 3125833.7576
1720.0000 10.9828 0.7792 4.1304 23.0119 29.8509 11.8742 -1.0641 3126436.1371
1730.0000 10.9949 0.7747 4.1569 23.0328 29.9844 11.9816 -1.0751 3127028.2650
1740.0000 11.0068 0.7702 4.1834 23.0534 30.1172 12.0890 -1.0861 3127610.3716
1750.0000 11.0185 0.7658 4.2098 23.0737 30.2493 12.1964 -1.0972 3128182.6808
1760.0000 11.0300 0.7615 4.2363 23.0936 30.3809 12.3038 -1.1082 3128745.4105
1770.0000 11.0413 0.7572 4.2627 23.1133 30.5118 12.4112 -1.1193 3129298.7723
1780.0000 11.0525 0.7529 4.2892 23.1326 30.6420 12.5187 -1.1304 3129842.9724
1790.0000 11.0635 0.7487 4.3156 23.1516 30.7717 12.6262 -1.1416 3130378.2109
1800.0000 11.0743 0.7445 4.3420 23.1704 30.9007 12.7336 -1.1528 3130904.6829
1810.0000 11.0849 0.7404 4.3684 23.1888 31.0291 12.8411 -1.1640 3131422.5780
1820.0000 11.0954 0.7364 4.3949 23.2070 31.1570 12.9486 -1.1753 3131932.0809
1830.0000 11.1058 0.7323 4.4212 23.2249 31.2842 13.0561 -1.1866 3132433.3713
1840.0000 11.1160 0.7284 4.4476 23.2426 31.4108 13.1636 -1.1979 3132926.6240
1850.0000 11.1260 0.7244 4.4740 23.2599 31.5368 13.2711 -1.2092 3133412.0093
1860.0000 11.1359 0.7205 4.5004 23.2770 31.6622 13.3786 -1.2206 3133889.6932
1870.0000 11.1456 0.7167 4.5267 23.2939 31.7871 13.4861 -1.2320 3134359.8370
1880.0000 11.1552 0.7129 4.5531 23.3105 31.9114 13.5936 -1.2434 3134822.5981
1890.0000 11.1646 0.7091 4.5794 23.3269 32.0351 13.7010 -1.2549 3135278.1298
1900.0000 11.1740 0.7054 4.6057 23.3430 32.1582 13.8085 -1.2664 3135726.5812
1910.0000 11.1831 0.7017 4.6320 23.3589 32.2808 13.9160 -1.2779 3136168.0980
1920.0000 11.1922 0.6980 4.6583 23.3745 32.4028 14.0234 -1.2894 3136602.8219
1930.0000 11.2011 0.6944 4.6846 23.3900 32.5243 14.1309 -1.3010 3137030.8911
1940.0000 11.2099 0.6908 4.7109 23.4052 32.6452 14.2383 -1.3126 3137452.4402
1950.0000 11.2186 0.6873 4.7372 23.4202 32.7656 14.3457 -1.3243 3137867.6006
1960.0000 11.2271 0.6838 4.7635 23.4349 32.8854 14.4531 -1.3359 3138276.5003
1970.0000 11.2355 0.6803 4.7898 23.4495 33.0047 14.5605 -1.3476 3138679.2641
1980.0000 11.2438 0.6769 4.8160 23.4639 33.1235 14.6679 -1.3593 3139076.0139
1990.0000 11.2520 0.6735 4.8423 23.4780 33.2417 14.7752 -1.3711 3139466.8685
2000.0000 11.2601 0.6701 4.8685 23.4920 33.3594 14.8826 -1.3828 3139851.9436
2010.0000 11.2680 0.6668 4.8947 23.5058 33.4766 14.9899 -1.3946 3140231.3523
2020.0000 11.2759 0.6635 4.9210 23.5193 33.5933 15.0972 -1.4064 3140605.2050
2030.0000 11.2836 0.6602 4.9472 23.5327 33.7095 15.2044 -1.4183 3140973.6092
2040.0000 11.2913 0.6569 4.9734 23.5459 33.8252 15.3117 -1.4302 3141336.6701
2050.0000 11.2988 0.6537 4.9996 23.5590 33.9404 15.4189 -1.4421 3141694.4901
2060.0000 11.3062 0.6506 5.0258 23.5718 34.0550 15.5261 -1.4540 3142047.1693
2070.0000 11.3136 0.6474 5.0520 23.5845 34.1692 15.6333 -1.4660 3142394.8055
2080.0000 11.3208 0.6443 5.0782 23.5970 34.2829 15.7404 -1.4780 3142737.4941
2090.0000 11.3279 0.6412 5.1043 23.6093 34.3961 15.8475 -1.4900 3143075.3283
2100.0000 11.3350 0.6382 5.1305 23.6215 34.5088 15.9546 -1.5020 3143408.3991
2110.0000 11.3419 0.6352 5.1567 23.6335 34.6211 16.0617 -1.5141 3143736.7954
2120.0000 11.3488 0.6322 5.1828 23.6453 34.7328 16.1687 -1.5262 3144060.6040
2130.0000 11.3555 0.6292 5.2090 23.6570 34.8441 16.2757 -1.5383 3144379.9097
2140.0000 11.3622 0.6262 5.2351 23.6685 34.9550 16.3826 -1.5504 3144694.7954
2150.0000 11.3688 0.6233 5.2612 23.6799 35.0653 16.4896 -1.5626 3145005.3421
2160.0000 11.3753 0.6204 5.2874 23.6911 35.1753 16.5965 -1.5748 3145311.6290
2170.0000 11.3817 0.6176 5.3135 23.7022 35.2847 16.7033 -1.5870 3145613.7334
2180.0000 11.3880 0.6148 5.3396 23.7131 35.3937 16.8102 -1.5992 3145911.7309
2190.0000 11.3943 0.6120 5.3657 23.7239 35.5023 16.9169 -1.6115 3146205.6954
2200.0000 11.4004 0.6092 5.3918 23.7346 35.6104 17.0237 -1.6238 3146495.6993
2210.0000 11.4065 0.6064 5.4179 23.7451 35.7180 17.1304 -1.6361 3146781.8131
2220.0000 11.4125 0.6037 5.4440 23.7555 35.8253 17.2371 -1.6484 3147064.1060
2230.0000 11.4185 0.6010 5.4701 23.7658 35.9320 17.3437 -1.6608 3147342.6455
2240.0000 11.4243 0.5983 5.4962 23.7759 36.0384 17.4503 -1.6732 3147617.4978
2250.0000 11.4301 0.5956 5.5222 23.7859 36.1443 17.5569 -1.6856 3147888.7274
2260.0000 11.4358 0.5930 5.5483 23.7958 36.2498 17.6634 -1.6980 3148156.3975
2270.0000 11.4415 0.5904 5.5744 23.8055 36.3549 17.7699 -1.7105 3148420.5702
2280.0000 11.4471 0.5878 5.6004 23.8151 36.4596 17.8763 -1.7229 3148681.3058
2290.0000 11.4526 0.5852 5.6265 23.8246 36.5638 17.9827 -1.7354 3148938.6636
2300.0000 11.4580 0.5827 5.6525 23.8340 36.6676 18.0891 -1.7480 3149192.7016
2310.0000 11.4634 0.5802 5.6785 23.8433 36.7711 18.1954 -1.7605 3149443.4765
2320.0000 11.4687 0.5777 5.7046 23.8524 36.8741 18.3017 -1.7731 3149691.0438
2330.0000 11.4739 0.5752 5.7306 23.8615 36.9767 18.4079 -1.7857 3149935.4579
2340.0000 11.4791 0.5727 5.7566 23.8704 37.0789 18.5141 -1.7983 3150176.7720
2350.0000 11.4842 0.5703 5.7826 23.8793 37.1807 18.6203 -1.8110 3150415.0381
2360.0000 11.4893 0.5679 5.8086 23.8880 37.2821 18.7264 -1.8236 3150650.3073
2370.0000 11.4943 0.5655 5.8346 23.8966 37.3832 18.8324 -1.8363 3150882.6295
2380.0000 11.4992 0.5631 5.8606 23.9051 37.4838 18.9384 -1.8490 3151112.0537
2390.0000 11.5041 0.5607 5.8866 23.9135 37.5840 19.0444 -1.8618 3151338.6277
2400.0000 11.5089 0.5584 5.9126 23.9218 37.6839 19.1503 -1.8745 3151562.3984
2410.0000 11.5136 0.5561 5.9386 23.9300 37.7834 19.2562 -1.8873 3151783.4118
2420.0000 11.5183 0.5538 5.9646 23.9381 37.8825 19.3620 -1.9001 3152001.7129
2430.0000 11.5230 0.5515 5.9906 23.9462 37.9812 19.4678 -1.9129 3152217.3459
2440.0000 11.5276 0.5493 6.0165 23.9541 38.0796 19.5735 -1.9258 3152430.3540
2450.0000 11.5321 0.5470 6.0425 23.9619 38.1776 19.6792 -1.9387 3152640.7794
2460.0000 11.5366 0.5448 6.0685 23.9697 38.2752 19.7849 -1.9516 3152848.6637
2470.0000 11.5410 0.5426 6.0944 23.9773 38.3725 19.8905 -1.9645 3153054.0476
2480.0000 11.5454 0.5404 6.1204 23.9849 38.4693 19.9960 -1.9774 3153256.9710
2490.0000 11.5497 0.5382 6.1463 23.9923 38.5659 20.1015 -1.9904 3153457.4728
2500.0000 11.5540 0.5361 6.1723 23.9997 38.6621 20.2069 -2.0033 3153655.5914
2510.0000 11.5583 0.5339 6.1982 24.0070 38.7579 20.3123 -2.0163 3153851.3644
2520.0000 11.5624 0.5318 6.2241 24.0143 38.8533 20.4177 -2.0294 3154044.8286
2530.0000 11.5666 0.5297 6.2501 24.0214 38.9485 20.5230 -2.0424 3154236.0200
2540.0000 11.5707 0.5276 6.2760 24.0285 39.0432 20.6282 -2.0555 3154424.9741
2550.0000 11.5747 0.5256 6.3019 24.0354 39.1377 20.7334 -2.0685 3154611.7256
2560.0000 11.5787 0.5235 6.3278 24.0423 39.2318 20.8386 -2.0816 3154796.3084
2570.0000 11.5827 0.5215 6.3537 24.0492 39.3255 20.9437 -2.0948 3154978.7561
2580.0000 11.5866 0.5194 6.3796 24.0559 39.4189 21.0487 -2.1079 3155159.1013
2590.0000 11.5905 0.5174 6.4055 24.0626 39.5120 21.1537 -2.1211 3155337.3761
2600.0000 11.5943 0.5155 6.4314 24.0692 39.6047 21.2587 -2.1343 3155513.6122
2610.0000 11.5981 0.5135 6.4573 24.0757 39.6971 21.3636 -2.1475 3155687.8403
2620.0000 11.6018 0.5115 6.4832 24.0822 39.7892 21.4684 -2.1607 3155860.0908
2630.0000 11.6055 0.5096 6.5091 24.0885 39.8810 21.5732 -2.1740 3156030.3936
